# Format: McCode with text headers
# URL: http://www.mccode.org
# Creator: McStas 2.5 - Nov. 19, 2019
# Instrument: /zhome/89/0/38697/TESTS/2019-11-20/McStas-2.5_CPU_MPICC/ISIS_test/ISIS_test.instr
# Ncount: 1000000
# Trace: no
# Gravitation: no
# Seed: 1574231633
# Directory: 1
# Nodes: 10
# Date: Wed Nov 20 01:05:43 2019 (1574208343)
# type: array_1d(1000)
# Source: ISIS_test (/zhome/89/0/38697/TESTS/2019-11-20/McStas-2.5_CPU_MPICC/ISIS_test/ISIS_test.instr)
# component: lam1
# position: 0 0 0.02
# title: Wavelength monitor
# Ncount: 10000000
# filename: lambdagr.dat
# statistics: X0=1.98325; dX=1.89179;
# signal: Min=5.44932e+06; Max=1.24314e+10; Mean=8.24294e+08;
# values: 8.24294e+11 5.0722e+08 9.99999e+06
# xvar: L
# yvar: (I,I_err)
# xlabel: Wavelength [AA]
# ylabel: Intensity
# xlimits: 0.3 12
# variables: L I I_err N
0.30585 1.243136686e+10 62451277.45 150628 
0.31755 1.241134251e+10 62178924.94 151197 
0.32925 1.181727758e+10 60473671.8 144284 
0.34095 1.172740785e+10 60678022.94 141901 
0.35265 1.092413335e+10 57876650.73 134148 
0.36435 1.085052077e+10 58374355.34 130911 
0.37605 1.067490763e+10 57660518.16 128897 
0.38775 1.033017818e+10 56887032.76 125270 
0.39945 9980112854 55723982.96 121125 
0.41115 9683044735 55061318.03 117427 
0.42285 9460809598 54352956.14 115259 
0.43455 9266487697 53929868.78 112402 
0.44625 9114927993 53503991.66 110501 
0.45795 8812181383 52795397.8 106055 
0.46965 8458092159 51782310.94 101578 
0.48135 8204199403 50934535.8 99260 
0.49305 7964655118 49893637.14 96602 
0.50475 7764956257 49145277.34 94796 
0.51645 7648729771 49005502.99 92264 
0.52815 7308332514 48112903.23 88332 
0.53985 7127220602 47392439.19 85860 
0.55155 7068667161 46983114 86175 
0.56325 7105329421 46986731.23 85995 
0.57495 7088084883 47109552.92 85285 
0.58665 6849622041 46482377.32 83226 
0.59835 6672452627 45403943.59 81596 
0.61005 6559942787 45237524.79 79767 
0.62175 6386433752 44522498.51 78080 
0.63345 6312650141 44345101.96 76564 
0.64515 6198303825 43866960.26 75059 
0.65685 5985201981 43224599.34 72668 
0.66855 5841615265 42890520.3 70563 
0.68025 5667666642 42302438.35 68612 
0.69195 5543473806 41913021.37 66476 
0.70365 5327706043 40545104.15 64621 
0.71535 5185825157 39901638.85 63355 
0.72705 5060526562 39765625.46 61537 
0.73875 4874827548 38971532.23 59435 
0.75045 4758452148 38575238.78 57720 
0.76215 4585923141 37857632.87 55371 
0.77385 4438506380 37199894.83 54010 
0.78555 4332683221 36639206.08 52828 
0.79725 4240426180 36570068.04 51668 
0.80895 4101546921 35649826.6 50061 
0.82065 3998403471 35456651.22 48422 
0.83235 3873301037 34775804.8 47008 
0.84405 3824190353 34556780.98 46268 
0.85575 3765373456 34340123.67 45684 
0.86745 3638879653 33684685.19 44247 
0.87915 3525180532 33270411.49 42617 
0.89085 3445314999 33034184.26 41451 
0.90255 3281812763 31911157.15 40046 
0.91425 3218033935 31356833.26 39173 
0.92595 3202387449 31835327.16 38314 
0.93765 3077140676 30965975.95 37130 
0.94935 2982349717 30347493.99 36483 
0.96105 2994724707 30820525.89 35851 
0.97275 2851399815 29519252.27 35085 
0.98445 2855020326 30027595.85 34508 
0.99615 2852425931 30224549.34 34084 
1.00785 2718847477 28886094.54 33145 
1.01955 2675359255 28898720.83 32719 
1.03125 2573685876 28226385.55 31434 
1.04295 2542663797 28310010.05 30644 
1.05465 2468479484 27757014.92 29971 
1.06635 2407857782 27238173.18 29241 
1.07805 2383948985 26883147.5 29432 
1.08975 2371836445 27222410.32 28738 
1.10145 2362351322 27365786.63 28014 
1.11315 2251521069 26429111.46 27150 
1.12485 2167930343 25909920.08 26516 
1.13655 2199048017 26474503.66 26326 
1.14825 2107409865 25710390.45 25461 
1.15995 2033652814 24671587.16 25436 
1.17165 2014278257 24740863.7 25039 
1.18335 2055781778 24820453.33 25285 
1.19505 2007726972 24859987.47 24597 
1.20675 2055268589 25499092.26 24480 
1.21845 1950598539 24745330.81 23649 
1.23015 1947970847 24835314.48 23415 
1.24185 1894068639 24467074.17 22869 
1.25355 1880117298 24356341.49 22804 
1.26525 1884245690 24722675.36 22524 
1.27695 1767162735 23156851.68 21966 
1.28865 1782003928 23711826.02 21550 
1.30035 1748432067 23414905.62 21119 
1.31205 1746378891 23643433.9 21022 
1.32375 1704923903 22995529.43 20720 
1.33545 1739474575 23236084.6 20932 
1.34715 1698014787 22865592.52 20793 
1.35885 1652894544 22421916.44 20376 
1.37055 1669412951 23098105.27 20061 
1.38225 1593612259 22083225.04 19442 
1.39395 1565261950 21983619.46 18911 
1.40565 1552686075 22166694.68 18535 
1.41735 1508604000 21636368.42 18523 
1.42905 1496520881 21634888.48 18398 
1.44075 1525894561 21789146.39 18404 
1.45245 1493533160 21474770.96 18183 
1.46415 1490029022 21863088.4 17727 
1.47585 1435228466 21061186.71 17555 
1.48755 1448932902 21495676.99 17313 
1.49925 1397121741 20640924.81 17100 
1.51095 1426175704 21095295.9 17121 
1.52265 1354649775 20304419.3 16919 
1.53435 1395016285 20901315.13 16794 
1.54605 1388756645 20784013.96 16962 
1.55775 1372351212 20966283.81 16557 
1.56945 1353979665 20417140.57 16294 
1.58115 1324996401 20485578.8 15918 
1.59285 1331667762 20014312.66 16197 
1.60455 1319849364 20540859.86 15913 
1.61625 1308908671 20110074.9 16042 
1.62795 1314497123 20326383.03 15812 
1.63965 1305324383 20298692.94 15557 
1.65135 1280655008 19829711.77 15686 
1.66305 1272468040 20141873.48 15225 
1.67475 1247817485 19613038.02 15315 
1.68645 1250121952 19809166.04 15099 
1.69815 1219533979 19725206.69 14790 
1.70985 1210441554 19295916.14 14688 
1.72155 1205913599 19829651.34 14408 
1.73325 1197902198 19421459.11 14477 
1.74495 1161228527 18777801.82 14340 
1.75665 1144137317 18670801.76 14195 
1.76835 1154090541 18802623.38 14138 
1.78005 1168924438 18973986.69 14136 
1.79175 1135184179 18837053.15 13870 
1.80345 1155172738 19051145.51 13923 
1.81515 1118741582 18664350.38 13677 
1.82685 1125804745 18819948.19 13699 
1.83855 1110379481 18280172.4 13619 
1.85025 1109241304 18620357.08 13568 
1.86195 1081847023 18222849.34 13320 
1.87365 1106744237 18828659.75 13193 
1.88535 1095731524 18297690.26 13352 
1.89705 1097372115 18391764.79 13380 
1.90875 1111180320 18587022.68 13403 
1.92045 1090716336 18480341.39 13154 
1.93215 1041893231 17745176.98 12901 
1.94385 1079952324 18280859.54 13063 
1.95555 1090732406 18252309.47 13322 
1.96725 1082114622 18322120.48 13005 
1.97895 1057640679 18084683.65 13163 
1.99065 1068627837 18316740.71 12866 
2.00235 1041804606 17737075.96 12814 
2.01405 1050918709 18192221.81 12622 
2.02575 1102708223 19060865.29 12855 
2.03745 1054207094 18173439.33 12833 
2.04915 1077644983 18665804.82 12932 
2.06085 1054593290 18174813.28 12780 
2.07255 1043492998 17883568.84 12691 
2.08425 1041006267 17829763.47 12691 
2.09595 1015485736 17508145.28 12611 
2.10765 1010414460 17251266.79 12643 
2.11935 1071708309 18483550.49 12723 
2.13105 1022830524 17548984.39 12669 
2.14275 1054751937 18118176.68 12655 
2.15445 1031696631 17959996.62 12511 
2.16615 1063977915 18761903.99 12530 
2.17785 1040708826 17934564.6 12648 
2.18955 1029565161 17694660.98 12676 
2.20125 1014562409 17590011.1 12510 
2.21295 1015012723 17444577.51 12657 
2.22465 1078013671 18372713.85 13069 
2.23635 1043243857 17927918.4 12788 
2.24805 1056769935 17989740.81 12897 
2.25975 1097677417 18716914.92 13174 
2.27145 1054050249 18002201.33 12973 
2.28315 1088283068 18631382.02 13065 
2.29485 1032916091 17630900.59 12767 
2.30655 1074068477 18305125.8 12911 
2.31825 1032318093 17745983.31 12683 
2.32995 1080945628 18596946.85 12978 
2.34165 1055156496 17927536.44 12966 
2.35335 1074329209 18549881.02 12841 
2.36505 1060921994 17849580.07 12998 
2.37675 1061068666 18061238.17 12904 
2.38845 1042586732 17732159.47 12868 
2.40015 1061059348 17932659.06 13020 
2.41185 1087621063 18773035.82 12980 
2.42355 1064281450 18126298.87 13050 
2.43525 1089880064 18419803.61 13104 
2.44695 1092152951 18439462.13 13146 
2.45865 1050913401 18125575.83 12879 
2.47035 1090439100 18468383.31 13318 
2.48205 1073765549 18264834.05 13032 
2.49375 1088451112 18203954.07 13175 
2.50545 1093113806 18517665.96 13227 
2.51715 1071202114 18137530.42 13270 
2.52885 1124256896 19307083.79 13245 
2.54055 1128432176 18836452.47 13472 
2.55225 1109756698 18771612.78 13457 
2.56395 1147621158 18895983.88 13890 
2.57565 1123268773 18779836.26 13670 
2.58735 1148305070 19039924.15 13662 
2.59905 1127167974 19116362.48 13620 
2.61075 1124234782 18644679.75 13592 
2.62245 1120531069 18684670.96 13555 
2.63415 1127874005 18749768.28 13575 
2.64585 1123101828 18866808.54 13672 
2.65755 1125665341 18590312.98 13758 
2.66925 1111776063 18690212.07 13590 
2.68095 1125600837 18730826.57 13632 
2.69265 1113609490 18736049.43 13462 
2.70435 1131609528 18890539.18 13663 
2.71605 1138249400 18815864.83 13810 
2.72775 1147307670 19142259.93 13584 
2.73945 1138751569 18810067.64 13656 
2.75115 1139446549 19116469.16 13514 
2.76285 1105609675 18290201.42 13672 
2.77455 1135382472 18660914.26 13902 
2.78625 1127440525 18955313.47 13786 
2.79795 1118830762 18329139.42 13911 
2.80965 1143800345 18635431.81 13975 
2.82135 1195841140 19410132.97 14249 
2.83305 1181532087 19322893.96 14295 
2.84475 1190262830 19421926.14 14242 
2.85645 1187132888 19219073.75 14214 
2.86815 1150250113 19205374.94 14025 
2.87985 1124019061 18752793.51 13778 
2.89155 1178219931 19316531.37 14118 
2.90325 1132423750 18788498.1 13771 
2.91495 1146237006 18999171.47 13850 
2.92665 1142001090 18677735.35 13958 
2.93835 1157735453 19072175.54 13820 
2.95005 1148962986 19170222.2 13875 
2.96175 1164959702 19232382.93 14035 
2.97345 1168977109 19234432.16 13963 
2.98515 1178951571 19099192.51 14103 
2.99685 1142955961 18778090.5 13903 
3.00855 1166128288 19155304.37 14166 
3.02025 1180817375 19140995.6 14361 
3.03195 1148253111 18601940.69 14232 
3.04365 1180290004 19199125.86 14275 
3.05535 1176854398 19023976.94 14399 
3.06705 1192607221 19389848.44 14350 
3.07875 1161821499 18763497.7 14226 
3.09045 1211991709 19576798.64 14576 
3.10215 1195706435 19840290.08 14240 
3.11385 1145190146 18462221.38 14248 
3.12555 1197743152 19253418.9 14419 
3.13725 1177882780 19030583.87 14371 
3.14895 1190525255 19303822.71 14422 
3.16065 1207483650 19427092.08 14319 
3.17235 1200768735 19620646.18 14120 
3.18405 1188622048 19514332.98 14273 
3.19575 1168962226 19129112.91 14334 
3.20745 1143260947 18681974.67 13936 
3.21915 1163191976 19014419.26 14153 
3.23085 1116547498 18279130.98 14063 
3.24255 1165201318 19087715.43 14099 
3.25425 1157188470 18950670.14 14059 
3.26595 1126667644 18495472.73 13921 
3.27765 1110503134 18436211.76 13581 
3.28935 1145279832 18901296.81 13804 
3.30105 1133828851 18498659.25 13830 
3.31275 1095614369 18306609.21 13486 
3.32445 1136287989 18769810.96 13739 
3.33615 1123712063 19077695.87 13440 
3.34785 1104950080 18574125.32 13329 
3.35955 1112874306 18620778.21 13626 
3.37125 1133849458 19207087.8 13375 
3.38295 1095395096 18522836.12 13269 
3.39465 1095037213 18455338.23 13224 
3.40635 1076766966 17975854.31 13169 
3.41805 1104696219 18675228.28 13313 
3.42975 1084853866 18468118.72 13182 
3.44145 1100946431 18839012.58 13184 
3.45315 1063547273 18085382.4 12893 
3.46485 1064095129 18319713.44 13006 
3.47655 1059223171 18373002.54 12942 
3.48825 1045817845 17865733.66 12784 
3.49995 1122374775 18874242.93 13093 
3.51165 1027001389 17693805.24 12599 
3.52335 1057200591 18412068.59 12540 
3.53505 1057648583 18397268.82 12785 
3.54675 1052733193 18248197.96 12688 
3.55845 1051018229 18477261.85 12562 
3.57015 1046272832 18039121.28 12633 
3.58185 1030066654 17694159.75 12768 
3.59355 1037379642 17876694.01 12674 
3.60525 1021512529 17720982.23 12699 
3.61695 1028702961 17816190.67 12450 
3.62865 993630825.4 17370409.1 12281 
3.64035 991435026.1 17389242.63 12187 
3.65205 997728364.3 17399276.98 12237 
3.66375 1014193686 18016558.85 12243 
3.67545 1006719984 17689344.66 12088 
3.68715 1024681385 18371941.58 12106 
3.69885 986884134.7 17878949.84 11871 
3.71055 969937704.1 17066883.48 12028 
3.72225 972648620.4 17217323.84 11917 
3.73395 974925361.5 17501502.66 11879 
3.74565 943884720.7 16914816.08 11669 
3.75735 952370766.5 16981950.18 11626 
3.76905 951220993.5 17008395.35 11563 
3.78075 969372195.3 17726354.97 11608 
3.79245 939273276.9 17207112.29 11478 
3.80415 926460170 17222586.37 11127 
3.81585 927539476 17342285.69 11175 
3.82755 907516422.8 16574924.85 11287 
3.83925 922891130.1 17039103.46 11259 
3.85095 911637501.6 16895453.7 11079 
3.86265 902180121.3 16554604.36 11084 
3.87435 900878407 16651423.26 11074 
3.88605 912347970 16895344.46 11021 
3.89775 890968917.5 16659893.12 10860 
3.90945 908300065.7 16965194.69 10905 
3.92115 909902743.1 17184521.26 10926 
3.93285 898706533 16741943.68 10865 
3.94455 841231779.5 15637442.14 10555 
3.95625 910791629.2 17119032.41 10759 
3.96795 870042832.9 16507273.04 10532 
3.97965 858037796.8 16339707.51 10412 
3.99135 860807669.8 16338530.37 10353 
4.00305 842690633.9 15998332.59 10365 
4.01475 862201618.5 16558985.38 10368 
4.02645 878658977 17000024.54 10442 
4.03815 841525507.3 16058923.93 10340 
4.04985 828830190.2 15978830.94 10127 
4.06155 876685196 16983858.02 10284 
4.07325 826829871.3 16255011.72 9917 
4.08495 794610049.6 15611025.35 9858 
4.09665 809244719.5 15964764.02 9917 
4.10835 822309506.8 16179816.37 9906 
4.12005 826307859 16199583.61 9796 
4.13175 803255051.7 15802131.95 9878 
4.14345 782770341.4 15385922.39 9646 
4.15515 767408125.6 15329451.96 9354 
4.16685 775831502.4 15634650.76 9526 
4.17855 778661100 15615171.82 9360 
4.19025 749913872.5 15176397.46 9239 
4.20195 764460539.9 15064939.36 9471 
4.21365 765433215.6 15367113.67 9264 
4.22535 776896057.3 16019201.79 9204 
4.23705 760745810.8 15578335.08 9196 
4.24875 759917560.1 15513472.28 9028 
4.26045 768961677.6 15873738.52 9131 
4.27215 744946222.5 15478036.67 8905 
4.28385 746979032.6 15463465.53 8874 
4.29555 763366139.1 15781311.1 9030 
4.30725 748006205.9 15548003.35 8940 
4.31895 688985591.7 13981280.73 8734 
4.33065 716362444.9 14953263.35 8718 
4.34235 706402630.2 14564463.18 8678 
4.35405 701168587.9 14691189.06 8605 
4.36575 719595966.6 14898514.84 8732 
4.37745 697408145.5 14764706.42 8505 
4.38915 701530970.5 14963200.96 8625 
4.40085 709183808.4 14787775.12 8640 
4.41255 687052321.8 14554407.64 8397 
4.42425 664128228.7 14143827.4 8316 
4.43595 664374674.8 14211735.75 8261 
4.44765 673421272.4 14417905.25 8137 
4.45935 675722683.3 14496707.68 8235 
4.47105 715835939.8 15362050.29 8299 
4.48275 676108894.9 14812928.34 8123 
4.49445 663953344.5 14502608.02 8032 
4.50615 651631647.3 14275836.91 7959 
4.51785 636506128.7 13751249.48 7871 
4.52955 632649362.3 13954708.36 7700 
4.54125 652095827.3 14347048.34 7851 
4.55295 609759665.5 13395762.52 7575 
4.56465 599088456.8 13299420.39 7542 
4.57635 591916314.1 13296779.83 7443 
4.58805 619789399.2 13700408.8 7557 
4.59975 613698945.7 13925654.63 7325 
4.61145 632911077.6 14079625.38 7504 
4.62315 611207853 14203085.74 7160 
4.63485 589731544.2 13440522.92 7250 
4.64655 577753975.4 13629826.21 7007 
4.65825 546938495.8 12823494.13 6934 
4.66995 556942862.8 12848899.2 6922 
4.68165 583297330.3 13582745.51 7002 
4.69335 576193190.6 13554282.12 7027 
4.70505 582025952 14098732.91 6868 
4.71675 587849844.3 13802603.52 6843 
4.72845 555868896.6 13084346.63 6836 
4.74015 552314582 12833696.11 6757 
4.75185 556428866.7 13145875.84 6788 
4.76355 549823627.2 13137459.85 6501 
4.77525 564221484.8 13432973.49 6741 
4.78695 544166169.4 13175628.32 6626 
4.79865 546314050.3 13141838.94 6562 
4.81035 544339803.3 12954871.75 6614 
4.82205 549452724.6 13251067.26 6504 
4.83375 540840695.1 12873763.99 6388 
4.84545 536773016.2 12914852.92 6422 
4.85715 510751166.5 12466026.61 6420 
4.86885 507220326.4 12614377.93 6225 
4.88055 512711048.2 12550086.8 6289 
4.89225 525572987.5 12865235.31 6167 
4.90395 514831220.4 12745780.55 6183 
4.91565 505473703.2 12333667.28 6196 
4.92735 493183802.4 12289670.64 6060 
4.93905 465750720.3 11760434.96 5883 
4.95075 482546048.6 12014445.85 5901 
4.96245 451413434.6 11207885.69 5851 
4.97415 493601527.4 12347729.06 5860 
4.98585 466398547.1 12157748.78 5630 
4.99755 459727735.2 11722377.88 5602 
5.00925 473604073.1 12254400.09 5660 
5.02095 461701814 12155104.28 5639 
5.03265 472598281.3 12160372.71 5652 
5.04435 458772470 11885450.11 5617 
5.05605 474359334 12546489.87 5521 
5.06775 451133333.1 11581503.99 5657 
5.07945 457735233.6 11956665.3 5542 
5.09115 435516372.9 11472780.85 5430 
5.10285 457150323.9 11743865.6 5560 
5.11455 443355537.4 11772918.7 5364 
5.12625 444002542.1 11766365.8 5382 
5.13795 418467065.6 11122860.6 5290 
5.14965 446748001.6 11850262.8 5374 
5.16135 436015408 11514668.86 5238 
5.17305 426158168.8 11367214.92 5241 
5.18475 418911282.5 11374013.1 5140 
5.19645 418126609.5 11539833.9 5059 
5.20815 433291929 11899786.5 5039 
5.21985 425479696.2 11832745.35 5041 
5.23155 434226574.3 11867334.09 5199 
5.24325 393260828.8 10598419.75 5024 
5.25495 408616616.8 11200965.03 5009 
5.26665 402439338.6 11228749.96 4903 
5.27835 416603594.4 11475980.52 4842 
5.29005 395499016.6 11285299.56 4763 
5.30175 397123330.7 11007213.39 4862 
5.31345 409687043.5 11608920.97 4812 
5.32515 410706036 11720827.41 4735 
5.33685 403789371.4 11163567.05 4682 
5.34855 387811806.9 10654848.4 4757 
5.36025 371801292.8 10545949.27 4695 
5.37195 374863881.1 10676728.67 4555 
5.38365 377742622 10895242.39 4603 
5.39535 366899238.1 10823069.6 4448 
5.40705 359100983.7 10428560.07 4496 
5.41875 382807789.5 11225447 4549 
5.43045 362249086 10501628.87 4416 
5.44215 347382553.4 10318234.25 4243 
5.45385 361734001.3 10561399.23 4353 
5.46555 353466260.5 10478254.01 4293 
5.47725 345190889.3 10093145.31 4289 
5.48895 349805424.1 10680817.64 4176 
5.50065 351571620.1 10310511.59 4244 
5.51235 353321587.2 10645150.59 4189 
5.52405 347154821.7 10575276.65 4114 
5.53575 339799468.1 10309353.51 4063 
5.54745 337605782 10363209.76 4070 
5.55915 334199471.1 10153234.86 4141 
5.57085 350151050.3 10708026.02 4059 
5.58255 336122153.9 10147589.44 4104 
5.59425 321219081.3 9873734.136 3921 
5.60595 303431286.5 9415572.01 3825 
5.61765 335219803.3 10396047.15 3983 
5.62935 332934942.5 10327278.73 4026 
5.64105 326486482.8 10231574.62 3905 
5.65275 303346553.2 9239993.747 3885 
5.66445 326304623.1 10224326.26 3898 
5.67615 310183938 9816289.498 3813 
5.68785 297130030.7 9204426.965 3748 
5.69955 321632120.3 10299867.96 3795 
5.71125 305810137.5 9655370.731 3722 
5.72295 292675364.2 9304278.196 3718 
5.73465 298015520.5 9712836.842 3615 
5.74635 307834083.8 9843306.781 3652 
5.75805 304773489.2 9890283.39 3526 
5.76975 300545184.3 9839433.718 3633 
5.78145 289626661.6 9403618.64 3555 
5.79315 286881718 9445465.791 3467 
5.80485 279855591.4 9158543.712 3515 
5.81655 286349556 9584608.392 3442 
5.82825 267858352.1 9113432.156 3324 
5.83995 282589149.7 9442175.384 3329 
5.85165 264757831.9 8826924.748 3266 
5.86335 266296047.5 9136663.81 3218 
5.87505 275541214.3 9325223.617 3321 
5.88675 266464315.6 9146012.927 3220 
5.89845 278288427.7 9698736.126 3176 
5.91015 259564235.4 8726120.732 3199 
5.92185 262253912.2 8978663.022 3268 
5.93355 253865837.4 9105466.751 3044 
5.94525 263859939.4 9159576.043 3126 
5.95695 261929309.5 9283103.169 3136 
5.96865 244763509 8439072.908 3048 
5.98035 240189811.4 8264933.734 3042 
5.99205 241204726.4 8413570.553 2988 
6.00375 244221654.4 8553532.038 3131 
6.01545 260980082.9 9283629.752 3039 
6.02715 255670683.7 9302501.907 3006 
6.03885 246136050.8 8844394.714 2920 
6.05055 248733495.9 8825521.001 2919 
6.06225 258135343.9 9347293.07 2961 
6.07395 222393381.8 8033964.232 2875 
6.08565 236727847.9 8532918.552 2835 
6.09735 228982979.3 8248650.21 2889 
6.10905 232717657.9 8652075.214 2820 
6.12075 228559372 8407617.121 2821 
6.13245 239940749.7 8749103.476 2825 
6.14415 215128757.5 7808235.161 2734 
6.15585 207029702.5 7728208.169 2668 
6.16755 230939291.4 8554165.327 2758 
6.17925 218492373.1 7942622.027 2700 
6.19095 233177228.5 8974225.741 2694 
